File: outputs/results/xrd_merged/xrd_0ml.csv
2Theta,0h,2h,4h,6h,8h,10h,12h,14h,16h,18h,20h,22h,24h
40.0015,645,659,654,653,668,670,624,651,637,634,634,610,651
40.2435,666,676,623,684,666,675,668,652,650,652,629,608,630
40.4855,669,639,683,653,634,624,613,640,667,617,630,656,666
40.7276,653,696,640,662,649,648,655,606,647,630,658,611,617
40.9696,640,703,734,710,737,645,680,619,645,648,605,580,668
41.2116,679,690,700,670,658,635,626,627,690,631,624,587,620
41.4536,687,704,701,714,670,707,628,650,635,659,640,636,654
41.6956,740,801,743,695,675,639,626,631,678,657,618,643,642
41.9377,821,760,811,825,803,746,764,762,746,735,795,762,723
42.1797,848,855,857,869,777,780,828,810,750,747,825,780,727
42.4217,917,921,917,946,876,804,821,831,780,802,791,752,790
42.6637,1107,1096,1070,1036,951,883,879,849,805,760,773,785,814
42.9058,1697,1669,1532,1487,1295,1097,950,1005,971,1009,969,940,1050
43.1478,4273,4201,4083,3844,3294,2475,2021,1907,1875,1893,1888,1900,1893
43.3898,15225,15749,16153,17722,23121,30361,39577,43546,41345,41987,42512,41346,41804
43.6318,4627,4590,4538,4256,3739,2615,2135,2048,1973,1943,1974,1897,1938
43.8738,1680,1677,1645,1593,1460,1155,969,949,948,891,903,914,909
44.1159,1126,1148,1155,1115,1030,927,802,831,807,802,761,800,839
44.3579,954,979,932,934,938,827,738,786,781,752,773,745,754
44.5999,828,855,928,948,845,747,740,731,785,784,748,749,721
44.8419,835,863,843,797,776,756,723,724,775,762,726,718,725
45.084,847,776,786,791,749,753,683,744,730,682,751,764,722
45.326,804,786,820,790,785,746,760,763,752,790,706,744,676
45.568,764,777,792,738,750,740,794,714,734,718,757,677,660
45.81,758,703,764,730,711,742,752,725,729,668,716,668,692
46.052,758,767,710,705,754,689,715,738,697,689,716,716,648
46.2941,764,771,664,746,734,697,699,718,709,711,725,687,702
46.5361,747,784,750,704,706,732,662,690,698,732,728,713,700
46.7781,747,736,693,729,736,724,707,709,727,647,663,648,693
47.0201,754,747,700,756,713,701,662,689,712,722,720,680,660
47.2622,727,690,764,698,714,704,701,699,740,639,681,692,695
47.5042,721,772,689,677,705,704,695,684,687,680,661,707,693
47.7462,736,710,702,654,691,686,657,716,743,681,676,675,670
47.9882,756,715,779,712,731,688,680,707,662,644,687,684,679
48.2302,745,684,726,728,675,689,679,662,665,654,671,679,653
48.4723,730,768,778,749,682,698,651,669,693,690,651,673,689
48.7143,759,749,760,771,694,731,720,712,707,656,714,678,738
48.9563,761,784,741,794,731,705,644,689,683,663,687,729,718
49.1983,812,822,783,764,783,689,683,728,708,668,647,701,710
49.4404,844,850,892,831,771,776,773,722,737,690,647,679,704
49.6824,988,1009,969,897,889,776,716,676,701,697,725,744,699
49.9244,1265,1262,1245,1130,1045,859,753,720,764,748,732,721,794
50.1664,2035,2013,1992,1867,1565,1137,982,918,896,914,897,962,872
50.4084,3827,3744,3732,3630,3422,3186,2673,2566,2659,2687,2527,2681,2647
50.6505,3299,3385,3459,3650,4313,5607,6724,6992,6802,7041,7121,6833,6878
50.8925,1721,1716,1695,1608,1432,1085,913,965,861,877,903,862,930
51.1345,1067,1104,1057,998,966,783,741,743,732,738,719,744,707
51.3765,884,842,929,834,774,756,724,674,674,714,717,703,704
51.6186,774,771,768,793,723,695,667,685,664,699,665,659,696
51.8606,716,742,767,751,720,691,660,693,687,613,644,651,684
52.1026,750,669,708,658,733,679,663,668,694,635,628,711,697
52.3446,677,686,699,677,715,661,633,688,680,642,650,655,661
52.5866,663,711,682,716,643,666,695,669,688,667,622,660,635
52.8287,725,688,695,633,622,688,625,646,707,635,657,640,677
53.0707,708,662,680,693,623,686,662,676,663,691,625,623,611
53.3127,638,693,682,654,674,647,677,639,677,641,631,619,660
53.5547,645,688,669,657,697,643,666,653,705,664,607,644,644
53.7968,646,634,628,649,615,595,649,679,664,631,632,624,651
54.0388,664,636,644,592,647,632,652,677,637,647,636,679,650
54.2808,639,650,641,633,645,706,637,614,638,691,644,633,657
54.5228,662,647,685,650,578,653,660,667,645,593,641,563,615
54.7648,658,640,656,646,629,623,612,648,596,648,680,608,591
55.0069,639,645,591,692,656,686,612,647,652,613,655,651,616
55.2489,681,641,638,620,663,663,662,672,637,648,625,668,708
55.4909,630,650,650,641,642,623,618,647,649,658,606,634,641
55.7329,680,653,676,626,684,661,626,635,683,612,636,616,620
55.975,632,622,605,639,707,643,654,651,637,603,609,632,675
56.217,627,660,612,646,619,659,613,656,636,626,607,609,637
56.459,652,626,662,642,620,627,657,623,633,626,655,618,632
56.701,677,650,636,587,602,611,632,603,611,647,622,667,652
56.9431,675,629,616,578,633,579,587,596,629,632,570,606,602
57.1851,659,627,622,644,653,615,589,609,638,649,636,623,599
57.4271,674,651,629,656,621,616,639,640,680,635,618,629,624
57.6691,636,628,620,583,618,653,648,556,600,639,642,617,639
57.9111,633,622,670,638,698,651,582,626,641,600,596,618,597
58.1532,611,657,640,617,606,623,631,626,654,626,642,600,672
58.3952,633,597,619,624,612,644,625,590,599,597,644,596,621
58.6372,620,579,686,605,587,643,611,600,616,661,591,620,639
58.8792,559,645,640,667,651,604,596,605,626,621,628,634,581
59.1213,655,632,656,651,589,575,628,642,615,600,641,651,644
59.3633,615,614,582,612,635,645,621,621,608,619,668,643,638
59.6053,611,613,613,613,643,596,599,624,630,602,654,622,598
59.8473,583,613,591,631,617,640,663,678,588,666,664,594,618
60.0893,623,655,635,602,641,656,597,677,645,618,591,602,591
60.3314,569,636,630,628,607,623,615,663,604,620,649,637,619
60.5734,598,594,649,635,609,552,607,625,622,586,599,569,614
60.8154,656,633,566,607,602,629,595,616,619,596,604,615,610
61.0574,650,592,603,632,653,649,644,591,618,620,597,590,631
61.2995,636,622,643,615,635,621,631,649,645,625,610,633,595
61.5415,639,654,624,615,614,612,649,595,598,609,600,602,640
61.7835,653,656,625,626,665,590,578,595,665,615,606,580,596
62.0255,606,619,605,608,607,631,599,652,611,612,622,602,596
62.2675,616,606,618,614,564,601,584,621,578,593,534,673,591
62.5096,573,619,626,618,602,608,644,615,599,622,587,599,630
62.7516,616,592,652,629,618,603,638,630,591,630,618,629,624
62.9936,597,571,617,647,608,651,635,576,657,602,594,662,621
63.2356,613,589,590,640,667,613,673,566,668,608,614,596,626
63.4777,588,631,618,614,568,624,624,571,605,633,614,617,608
63.7197,618,629,657,582,581,639,619,633,603,617,611,598,569
63.9617,633,643,611,618,623,645,640,607,626,591,634,589,613
64.2037,566,578,644,616,579,646,583,633,614,613,633,599,622
64.4457,587,621,632,622,595,640,614,626,617,636,616,594,629
64.6878,595,624,577,633,635,617,575,630,645,655,579,597,575
64.9298,626,619,617,608,615,585,631,580,641,594,596,604,605
65.1718,583,576,588,591,584,622,606,601,637,605,608,621,613
65.4138,607,617,618,630,615,592,599,634,588,637,619,610,570
65.6559,620,592,588,590,611,590,635,613,594,612,624,573,620
65.8979,607,649,618,566,605,588,575,606,614,597,617,641,616
66.1399,627,575,642,635,601,648,625,640,634,597,638,579,642
66.3819,587,647,593,615,653,599,658,610,615,623,626,615,567
66.6239,645,616,585,623,602,597,611,607,601,661,607,634,605
66.866,601,607,599,612,601,611,566,655,579,578,608,602,593
67.108,597,643,589,630,594,580,628,593,623,595,584,624,590
67.35,661,590,622,642,656,629,592,635,588,640,603,596,613
67.592,590,631,564,620,581,621,585,636,608,600,594,602,562
67.8341,618,621,606,585,572,627,593,607,652,575,588,575,618
68.0761,586,636,582,591,607,629,637,611,591,637,556,613,601
68.3181,629,608,653,640,613,622,580,594,629,598,626,617,575
68.5601,594,637,652,601,579,616,621,595,619,606,638,606,589
68.8021,582,633,581,598,614,612,593,602,597,629,559,603,581
69.0442,635,616,627,633,622,671,583,602,632,603,608,593,604
69.2862,611,591,613,610,651,617,594,597,568,587,593,635,597
69.5282,590,659,589,608,585,590,628,618,604,596,576,607,598
69.7702,611,639,602,631,602,606,584,584,631,564,622,631,583
70.0123,589,648,609,585,619,638,632,633,610,627,627,649,596
70.2543,591,619,601,578,604,601,559,599,603,594,597,636,593
70.4963,602,635,597,640,618,611,622,556,663,610,593,597,609
70.7383,590,622,602,615,606,598,587,567,614,575,568,598,626
70.9803,632,600,665,599,608,635,630,597,659,591,599,637,584
71.2224,595,612,575,602,583,618,628,656,622,633,584,626,556
71.4644,601,583,603,655,696,624,634,688,660,639,640,631,628
71.7064,596,644,638,614,610,628,641,665,678,617,603,635,609
71.9484,644,628,631,663,620,624,611,620,630,633,636,600,610
72.1905,624,589,601,582,688,645,661,660,611,637,606,634,657
72.4325,645,680,626,665,650,685,654,659,631,645,652,629,659
72.6745,683,627,691,584,656,658,668,639,653,623,623,643,580
72.9165,650,648,665,654,663,601,635,632,667,696,646,597,619
73.1585,641,706,644,672,630,698,658,643,651,641,680,637,617
73.4006,707,669,663,706,665,664,655,677,648,651,627,630,715
73.6426,808,758,782,803,741,695,720,685,709,694,729,699,729
73.8846,1067,986,1087,1075,997,932,881,916,871,905,846,862,865
74.1266,1522,1598,1733,2443,4568,6549,6464,6462,6813,6454,6492,6642,6701
74.3687,1328,1419,1553,2179,3849,5564,5889,6071,6148,6113,5885,6147,6367
74.6107,980,926,951,971,867,826,860,825,899,847,857,853,885
74.8527,750,771,731,708,753,717,702,719,670,687,657,697,680
75.0947,682,665,724,711,656,632,650,712,625,672,665,685,644
75.3367,688,653,637,614,639,699,632,624,621,617,646,656,667
75.5788,660,609,639,619,634,691,653,632,635,588,635,673,667
75.8208,611,595,598,651,638,581,646,604,643,618,584,635,644
76.0628,638,621,612,651,638,619,609,613,681,654,607,673,678
76.3048,631,646,578,613,635,586,622,636,599,654,646,650,643
76.5469,644,611,642,633,577,600,600,619,633,598,630,636,604
76.7889,623,637,593,599,600,601,628,588,647,624,604,620,615
77.0309,613,651,556,616,606,633,615,604,666,653,678,601,603
77.2729,608,623,625,616,588,610,622,619,596,598,638,582,598
77.5149,595,635,601,592,626,611,628,605,625,617,598,613,623
77.757,617,608,634,597,557,643,612,632,645,617,617,583,654
77.999,583,601,582,620,641,626,595,630,656,682,623,597,667