File: outputs/results/xrd_merged/xrd_4.5ml.csv
2Theta,0h,2h,4h,6h,8h,10h,12h,14h,16h,18h,20h,22h,24h
40.0015,673,637,647,628,654,651,630,660,602,647,636,615,638
40.2435,635,642,629,640,635,629,640,609,623,652,647,619,659
40.4855,614,664,675,622,645,619,689,625,618,600,609,647,628
40.7276,621,671,646,689,636,649,649,601,657,607,622,653,626
40.9696,651,704,717,680,691,606,630,634,633,633,623,648,593
41.2116,704,652,674,615,636,648,636,655,666,603,626,648,651
41.4536,733,642,731,667,740,596,628,608,654,641,603,641,632
41.6956,755,791,724,782,659,636,617,658,633,675,624,607,602
41.9377,808,808,814,762,829,730,775,747,749,758,726,686,737
42.1797,871,846,878,796,809,759,744,748,686,763,786,797,772
42.4217,974,935,910,1007,897,841,807,794,738,780,752,766,733
42.6637,1125,1170,1178,1104,976,855,873,828,833,804,755,817,815
42.9058,1977,1982,1886,1853,1545,1255,1182,1146,1143,1109,1125,1101,1111
43.1478,6476,6540,6231,6029,4699,3113,2489,2315,2332,2260,2233,2310,2247
43.3898,13715,14391,14783,15679,17716,18973,18650,18722,20518,19591,19927,19046,18763
43.6318,3259,3369,3344,3140,2636,1774,1606,1522,1451,1474,1478,1543,1591
43.8738,1528,1453,1442,1415,1245,956,931,857,876,865,900,865,852
44.1159,1048,1134,1023,1001,987,911,805,776,843,784,790,759,729
44.3579,922,935,887,900,896,791,750,752,739,768,757,790,781
44.5999,877,908,895,828,825,778,737,733,744,724,767,779,681
44.8419,849,799,785,798,754,736,694,727,749,730,698,744,720
45.084,781,814,785,794,783,724,708,747,698,754,697,716,763
45.326,757,843,794,787,754,740,695,770,778,755,734,786,741
45.568,728,768,739,711,712,778,676,677,704,721,711,716,661
45.81,661,787,762,775,762,718,726,736,684,710,710,694,694
46.052,717,768,779,708,705,651,683,678,692,724,671,702,691
46.2941,654,689,755,757,688,716,712,658,651,666,645,711,669
46.5361,749,753,691,722,687,668,697,658,696,675,682,711,707
46.7781,729,730,739,710,716,687,713,653,695,667,660,690,663
47.0201,715,715,710,691,685,665,696,650,679,648,685,682,697
47.2622,700,729,708,668,697,694,683,646,669,671,658,714,647
47.5042,676,674,690,694,710,684,693,640,636,673,651,662,677
47.7462,738,730,692,706,737,656,707,647,699,680,671,680,693
47.9882,723,720,726,728,680,633,677,669,659,666,724,675,657
48.2302,687,710,693,706,726,701,682,648,679,711,649,653,652
48.4723,754,758,773,728,662,696,640,669,619,615,612,651,661
48.7143,759,764,738,754,709,668,676,687,663,702,690,697,676
48.9563,783,766,800,759,782,658,726,671,681,761,710,685,667
49.1983,804,767,850,786,810,672,677,693,688,705,656,681,675
49.4404,803,864,847,875,806,694,729,685,678,703,662,726,697
49.6824,1000,992,985,987,840,736,721,684,728,685,713,744,721
49.9244,1401,1380,1329,1306,1029,873,769,736,776,725,731,760,777
50.1664,2428,2426,2371,2317,1810,1226,1009,975,952,951,983,1001,944
50.4084,4009,4155,4365,5165,7016,8713,8673,8728,9310,8740,9177,9006,8797
50.6505,2869,2989,2984,2856,2540,2066,2143,2114,1977,2027,1942,2035,1979
50.8925,1509,1584,1556,1566,1293,932,806,801,765,820,797,796,787
51.1345,1022,1060,997,966,897,787,724,718,697,688,697,694,690
51.3765,838,827,859,783,746,698,667,687,703,679,697,647,725
51.6186,758,737,749,788,720,695,672,653,664,693,660,693,688
51.8606,748,741,719,718,693,665,652,638,655,651,675,693,682
52.1026,695,717,757,682,679,662,664,682,671,651,605,633,631
52.3446,704,654,721,701,666,655,686,667,642,647,655,623,604
52.5866,668,643,692,688,662,703,677,650,656,654,632,634,612
52.8287,687,636,643,666,655,665,635,686,610,649,665,615,685
53.0707,633,711,581,629,657,626,676,610,647,685,644,626,615
53.3127,627,624,664,666,691,660,643,627,623,658,631,682,616
53.5547,620,618,676,619,655,642,680,670,582,642,640,649,605
53.7968,681,674,604,652,665,635,631,641,620,619,629,595,610
54.0388,653,659,665,633,635,650,615,658,610,589,609,637,658
54.2808,645,646,600,685,669,666,641,606,613,568,646,650,632
54.5228,647,627,630,611,597,644,605,646,632,617,651,645,609
54.7648,650,660,619,637,611,670,642,619,676,619,568,658,599
55.0069,609,632,605,673,650,658,622,651,664,641,633,616,614
55.2489,593,623,641,618,629,645,639,673,642,671,654,627,582
55.4909,662,629,679,622,645,579,626,622,633,613,650,619,602
55.7329,594,630,645,631,622,620,650,676,632,633,562,646,613
55.975,636,605,607,640,606,611,621,680,605,603,635,637,609
56.217,606,609,616,685,629,616,645,622,606,594,636,650,638
56.459,603,622,604,627,680,666,621,665,621,623,618,602,644
56.701,655,584,616,633,636,618,620,629,600,617,627,630,608
56.9431,627,616,634,584,653,618,642,655,579,630,607,678,595
57.1851,666,654,585,626,603,616,631,617,601,605,598,629,606
57.4271,580,660,582,613,620,642,647,600,603,662,646,576,575
57.6691,624,674,591,567,646,629,628,620,628,586,576,609,627
57.9111,624,576,640,652,628,671,618,633,607,571,633,617,584
58.1532,639,613,662,640,605,586,631,615,626,607,602,597,621
58.3952,598,611,577,600,628,561,624,558,601,616,593,641,608
58.6372,604,600,628,613,613,608,590,591,576,585,624,614,611
58.8792,577,588,625,631,591,642,633,581,603,616,639,660,637
59.1213,620,660,602,610,655,629,580,629,621,623,616,616,582
59.3633,577,623,628,593,628,584,606,627,591,622,627,615,590
59.6053,593,605,630,607,657,599,602,602,624,651,609,588,647
59.8473,589,572,596,646,612,609,620,647,573,662,616,628,586
60.0893,581,643,673,647,597,580,604,595,672,604,630,613,625
60.3314,624,631,606,613,598,630,631,637,617,622,535,642,606
60.5734,605,598,619,607,595,588,583,590,611,613,610,638,578
60.8154,614,643,613,581,640,620,597,603,598,606,589,632,597
61.0574,610,570,644,616,605,571,607,587,588,580,613,660,628
61.2995,571,595,617,599,635,611,607,638,645,563,593,650,596
61.5415,632,610,630,639,577,600,622,593,581,676,599,591,590
61.7835,621,628,558,629,621,604,664,625,597,570,585,569,613
62.0255,670,637,640,560,592,599,584,605,590,632,608,618,643
62.2675,612,585,604,630,627,654,586,588,608,642,594,580,617
62.5096,617,618,606,615,569,581,582,598,583,655,612,602,616
62.7516,670,587,573,622,594,609,551,632,610,548,636,649,574
62.9936,584,580,589,624,620,616,596,612,628,603,635,615,640
63.2356,614,627,626,615,610,626,615,599,633,622,597,617,600
63.4777,615,610,552,594,597,551,607,608,615,601,600,579,595
63.7197,657,585,584,617,619,586,584,643,575,602,575,591,604
63.9617,579,549,626,622,626,585,606,625,615,564,652,594,625
64.2037,605,593,590,595,602,604,605,603,550,622,598,636,638
64.4457,628,631,620,644,596,638,660,654,608,584,627,640,591
64.6878,621,629,598,615,634,581,613,593,620,597,589,611,613
64.9298,588,563,592,559,625,581,614,612,585,617,625,621,571
65.1718,584,612,638,594,565,571,623,598,587,631,635,622,564
65.4138,558,582,656,611,573,621,585,606,610,600,590,661,611
65.6559,613,598,568,658,578,587,648,617,609,613,588,627,587
65.8979,624,578,636,595,580,614,589,605,614,593,579,606,590
66.1399,603,614,631,608,623,631,588,657,581,632,585,602,598
66.3819,639,607,598,618,623,565,640,629,626,584,646,663,595
66.6239,611,637,641,575,595,603,637,601,550,610,617,586,613
66.866,554,632,609,586,567,552,580,626,618,582,617,578,592
67.108,601,594,589,594,627,580,606,596,630,619,619,617,626
67.35,611,602,615,592,567,593,665,604,565,630,629,572,585
67.592,545,585,611,634,554,589,583,594,567,572,605,600,638
67.8341,569,567,604,592,606,636,568,589,573,629,661,570,595
68.0761,579,609,594,554,619,570,603,599,562,592,627,618,569
68.3181,613,579,589,623,594,611,616,585,607,619,632,615,616
68.5601,639,633,605,595,557,623,634,584,630,597,612,593,602
68.8021,625,613,558,607,591,630,602,621,585,580,570,560,627
69.0442,625,628,632,651,623,585,599,582,628,591,609,595,583
69.2862,566,589,629,574,623,540,613,584,581,640,624,608,634
69.5282,606,601,578,560,564,586,631,590,638,599,640,592,544
69.7702,574,598,610,600,614,565,624,607,587,625,586,612,605
70.0123,626,611,612,560,599,594,575,585,625,639,589,606,610
70.2543,585,578,586,627,610,643,612,620,612,588,591,572,580
70.4963,627,581,603,574,635,625,624,591,565,592,595,610,602
70.7383,626,568,576,616,589,638,613,622,542,610,594,610,570
70.9803,640,576,606,585,613,574,604,591,576,613,641,595,580
71.2224,587,611,570,590,581,653,621,592,600,617,603,611,578
71.4644,605,608,647,622,597,589,604,582,618,640,609,639,627
71.7064,589,620,602,601,628,639,673,589,633,610,621,656,605
71.9484,631,634,584,620,675,601,659,653,587,622,572,621,630
72.1905,588,607,618,628,599,654,657,618,597,606,614,650,562
72.4325,605,589,627,605,606,608,638,627,650,607,590,624,611
72.6745,585,593,615,627,639,613,595,634,588,614,637,595,641
72.9165,612,596,625,639,636,575,632,638,654,655,609,635,602
73.1585,639,682,639,667,651,651,634,618,657,647,607,648,619
73.4006,700,686,684,679,667,633,643,653,594,617,637,691,691
73.6426,800,800,821,758,789,661,718,742,718,726,701,721,667
73.8846,1089,1126,1108,1032,994,924,972,914,917,873,929,952,947
74.1266,1512,1517,1730,3034,6679,10831,12189,12469,12360,12366,12577,12639,12444
74.3687,1144,1221,1268,1652,2626,3881,4490,4517,4529,4465,4517,4557,4469
74.6107,880,825,859,851,819,779,764,807,778,756,752,718,782
74.8527,701,734,728,691,697,701,684,647,671,683,677,667,657
75.0947,626,633,663,690,654,628,650,627,654,673,603,656,677
75.3367,640,664,668,628,608,647,643,638,608,637,633,689,608
75.5788,585,617,630,635,633,624,617,631,612,644,641,679,621
75.8208,616,607,604,634,667,653,623,615,653,602,587,593,642
76.0628,617,602,640,608,596,645,592,589,619,637,630,644,605
76.3048,618,567,620,613,568,612,621,623,621,598,614,639,605
76.5469,579,605,601,613,584,612,637,625,621,625,632,640,581
76.7889,615,616,671,624,629,594,634,637,634,583,620,617,623
77.0309,569,618,627,623,610,582,635,595,595,605,627,586,619
77.2729,607,574,599,605,616,590,619,590,613,590,609,611,571
77.5149,629,562,564,615,580,611,612,576,624,633,618,608,622
77.757,600,636,606,587,615,615,612,644,562,560,613,580,613
77.999,587,612,589,644,580,600,589,584,617,624,596,584,603