File: outputs/results/xrd_merged/xrd_18ml.csv
2Theta,0h,2h,4h,6h,8h,10h,12h,14h,16h,18h,20h,22h,24h
40.0015,650,632,641,659,688,668,678,651,665,678,643,644,628
40.2435,687,657,662,631,606,637,662,645,656,629,616,656,672
40.4855,671,644,657,670,631,656,682,652,673,647,700,628,666
40.7276,695,696,675,623,640,612,672,658,645,642,644,679,646
40.9696,716,635,625,652,686,590,613,626,676,650,674,633,674
41.2116,744,747,693,676,634,697,636,655,696,629,653,649,620
41.4536,724,680,694,658,671,656,673,646,652,655,623,635,613
41.6956,715,697,703,773,680,662,637,647,681,694,623,650,660
41.9377,774,815,838,831,776,764,710,756,740,750,755,752,754
42.1797,895,893,877,865,828,818,754,814,817,723,790,739,800
42.4217,956,932,923,929,910,835,797,773,800,828,817,807,789
42.6637,1046,1128,1103,1032,936,907,785,807,784,802,753,781,763
42.9058,1505,1465,1497,1343,1173,903,859,868,848,875,879,865,851
43.1478,3025,3046,2923,2765,2073,1548,1432,1374,1375,1343,1406,1370,1290
43.3898,14686,14388,14638,13733,11476,9244,7885,7995,7884,8385,8065,7780,7686
43.6318,9977,10316,10318,9725,7685,6249,6149,5701,5782,5507,5509,6006,5868
43.8738,2604,2593,2565,2346,1827,1253,1219,1105,1189,1146,1140,1170,1125
44.1159,1343,1386,1410,1331,1125,952,867,868,891,787,860,862,867
44.3579,1108,1075,1131,996,990,787,798,787,789,769,768,774,794
44.5999,997,974,940,921,887,749,776,750,776,752,749,710,770
44.8419,885,907,853,855,807,737,736,716,706,803,712,743,710
45.084,869,838,823,821,753,731,709,730,724,769,809,696,752
45.326,789,846,846,799,763,717,716,740,677,736,664,720,753
45.568,835,820,810,794,765,678,733,718,751,729,764,759,704
45.81,789,779,824,814,779,750,753,675,723,691,748,680,683
46.052,802,751,786,796,744,692,715,721,695,648,705,720,715
46.2941,761,796,725,739,795,725,686,662,707,730,689,677,692
46.5361,701,761,787,719,732,678,703,666,695,679,682,711,708
46.7781,772,767,771,752,690,682,705,702,671,702,696,712,641
47.0201,753,683,774,792,760,696,675,690,721,702,667,712,675
47.2622,742,770,786,784,657,656,713,709,696,658,666,710,752
47.5042,746,708,771,720,714,702,669,669,679,680,694,659,623
47.7462,691,747,707,733,690,716,666,693,649,666,678,732,685
47.9882,794,749,768,722,731,653,642,682,683,632,696,689,662
48.2302,758,708,778,725,666,603,702,671,640,661,706,642,697
48.4723,756,715,778,757,725,752,706,671,644,719,656,642,679
48.7143,784,776,792,745,747,672,663,671,726,659,728,666,647
48.9563,844,818,803,824,720,705,677,686,657,679,753,714,707
49.1983,843,879,804,799,774,658,702,701,737,716,653,702,700
49.4404,862,857,820,815,722,729,735,675,690,700,673,701,684
49.6824,975,953,978,937,828,764,720,698,693,716,697,707,756
49.9244,1228,1186,1127,1081,922,804,708,751,727,704,739,731,710
50.1664,1887,1889,1878,1565,1251,941,849,895,805,817,823,820,807
50.4084,3490,3541,3367,3027,2224,1505,1280,1250,1227,1160,1250,1211,1224
50.6505,4243,4367,4462,4503,4437,4618,4865,4723,4819,4501,4766,4903,4831
50.8925,2503,2667,2564,2287,1697,1275,1103,1023,1090,1042,1012,1058,1013
51.1345,1349,1398,1380,1265,1057,823,857,778,777,738,823,721,743
51.3765,1022,1008,1035,944,800,679,687,678,741,716,704,713,709
51.6186,847,824,848,807,740,687,690,683,691,669,674,677,678
51.8606,823,750,766,784,663,685,662,689,695,656,638,621,656
52.1026,752,714,734,745,699,673,705,670,635,658,715,669,683
52.3446,695,702,710,648,725,687,683,655,653,696,654,664,679
52.5866,719,673,648,709,614,664,624,630,653,657,634,635,634
52.8287,685,658,705,695,689,631,625,620,652,664,657,605,653
53.0707,646,697,683,668,657,632,619,646,648,626,646,616,674
53.3127,729,641,664,704,645,602,663,671,626,689,638,621,618
53.5547,663,657,675,706,626,574,619,693,671,664,637,620,675
53.7968,693,678,688,638,672,636,674,651,697,672,669,621,621
54.0388,658,635,662,681,675,680,627,662,641,687,647,630,618
54.2808,645,650,701,734,673,677,603,626,684,593,693,619,660
54.5228,663,642,683,680,603,622,681,702,640,670,652,611,631
54.7648,676,618,694,665,623,604,642,650,645,628,634,625,626
55.0069,698,674,689,688,679,615,693,661,626,594,658,641,650
55.2489,640,627,642,671,693,628,634,663,645,708,635,628,674
55.4909,637,628,655,681,626,649,622,642,644,628,616,658,653
55.7329,665,593,663,672,638,651,634,628,616,623,629,639,635
55.975,639,638,612,675,619,583,649,678,647,665,653,586,665
56.217,644,686,650,589,611,638,630,600,583,662,619,668,579
56.459,643,649,611,617,631,609,606,630,606,617,600,597,657
56.701,587,680,618,696,617,676,631,629,648,605,649,654,635
56.9431,637,613,674,645,678,612,576,633,607,623,623,631,605
57.1851,659,630,629,638,658,626,624,610,611,637,621,639,591
57.4271,651,669,629,676,642,617,592,613,674,659,679,618,592
57.6691,598,574,613,635,600,601,630,659,631,642,598,661,672
57.9111,664,687,632,615,629,635,660,593,640,612,607,607,612
58.1532,664,690,649,664,661,624,633,625,616,640,612,637,652
58.3952,615,608,665,633,631,651,658,612,632,635,646,625,636
58.6372,651,645,638,611,588,589,607,641,609,642,610,633,598
58.8792,636,616,632,637,607,620,640,610,583,628,655,661,618
59.1213,608,656,594,622,620,643,656,631,637,658,640,615,618
59.3633,624,595,660,630,670,655,658,625,581,571,643,641,598
59.6053,626,631,594,609,608,632,613,608,634,601,632,641,610
59.8473,607,631,619,641,666,632,614,622,636,621,624,644,586
60.0893,646,596,618,608,637,623,682,608,606,577,608,642,636
60.3314,648,649,611,653,593,637,625,656,684,579,582,639,639
60.5734,632,633,650,632,628,627,593,667,640,663,604,617,640
60.8154,600,676,624,641,628,591,615,663,611,608,633,566,581
61.0574,651,598,602,612,611,639,613,681,573,611,637,639,639
61.2995,646,594,670,623,605,612,569,647,609,606,608,616,603
61.5415,670,619,640,670,628,661,608,625,590,677,594,595,591
61.7835,628,638,618,597,588,623,636,595,633,637,637,562,649
62.0255,661,655,644,601,586,591,645,657,599,605,604,623,575
62.2675,649,635,652,623,623,632,649,628,611,597,645,575,622
62.5096,659,631,618,596,588,634,548,632,599,658,611,621,596
62.7516,626,623,637,667,582,625,574,651,638,620,627,648,654
62.9936,633,627,635,594,672,665,614,615,634,605,619,654,650
63.2356,629,601,629,623,630,620,623,606,640,649,605,556,621
63.4777,676,622,656,589,609,590,637,614,611,630,636,587,646
63.7197,665,633,613,617,618,560,607,658,616,613,633,597,598
63.9617,609,599,585,623,652,622,611,639,651,624,624,589,656
64.2037,622,630,607,593,644,572,637,635,632,612,582,623,642
64.4457,619,596,643,621,665,633,642,628,631,621,654,600,648
64.6878,581,587,629,639,637,557,607,599,605,640,615,659,660
64.9298,617,605,582,648,626,667,592,611,553,598,610,653,594
65.1718,636,671,607,595,605,617,632,621,580,632,589,614,649
65.4138,631,602,638,625,633,655,639,600,595,590,628,602,679
65.6559,612,647,645,598,613,575,613,641,592,586,615,612,626
65.8979,615,612,577,600,617,637,607,648,608,644,603,614,621
66.1399,599,643,620,640,638,639,605,657,643,633,714,628,655
66.3819,625,652,616,637,627,614,654,611,646,617,570,619,585
66.6239,599,653,619,608,600,606,595,634,587,585,580,578,629
66.866,634,583,656,617,605,606,566,599,659,626,617,604,633
67.108,643,585,577,631,577,598,584,621,634,571,634,635,598
67.35,607,610,679,640,655,631,640,565,595,626,597,611,571
67.592,604,625,632,596,630,627,626,600,579,617,613,600,640
67.8341,618,598,618,640,630,598,601,619,645,630,638,629,570
68.0761,622,640,640,621,607,616,624,605,586,628,626,594,601
68.3181,623,630,600,602,600,590,665,610,632,608,618,611,628
68.5601,590,605,623,629,604,588,604,636,654,603,593,636,611
68.8021,617,578,614,648,570,595,618,649,617,616,580,584,584
69.0442,595,600,633,621,600,639,580,622,636,606,626,604,591
69.2862,608,640,662,632,583,604,619,645,589,635,620,577,645
69.5282,605,592,660,628,608,591,612,599,615,582,625,591,602
69.7702,623,596,631,616,669,590,596,652,638,625,594,611,657
70.0123,604,571,593,588,572,664,571,581,625,600,613,577,593
70.2543,605,591,573,637,651,612,606,613,641,619,627,615,599
70.4963,592,587,633,603,644,606,587,659,586,589,588,574,563
70.7383,574,621,614,653,634,604,610,643,639,608,568,623,626
70.9803,641,538,615,642,640,626,602,617,623,653,641,613,614
71.2224,657,629,612,661,648,621,626,607,628,615,643,610,622
71.4644,635,620,587,628,634,628,635,650,654,616,622,612,642
71.7064,622,580,624,621,599,618,592,645,631,667,630,622,603
71.9484,628,622,579,609,597,610,625,666,612,671,653,649,590
72.1905,619,637,617,621,656,605,649,650,642,640,625,651,638
72.4325,634,617,658,650,616,641,622,646,628,636,628,617,620
72.6745,646,590,631,612,607,654,678,625,638,674,626,612,616
72.9165,606,622,643,615,606,659,676,613,600,647,598,662,653
73.1585,630,639,664,662,652,686,627,669,641,610,628,635,688
73.4006,730,684,632,671,660,666,645,652,649,672,628,652,633
73.6426,795,709,758,717,694,693,659,653,685,674,649,650,693
73.8846,928,868,935,938,914,947,918,846,896,855,822,802,872
74.1266,1284,1290,1356,1444,1515,1615,1515,1617,1599,1678,1549,1568,1661
74.3687,1327,1333,1324,1582,1976,2102,2215,2142,2114,2229,2208,2179,2207
74.6107,1027,987,1015,1024,959,1008,1003,1048,1021,1017,983,1063,1037
74.8527,752,790,778,759,756,715,681,695,702,715,730,693,742
75.0947,716,704,682,713,710,662,725,652,638,718,699,619,654
75.3367,640,665,675,701,614,644,633,646,667,626,677,634,655
75.5788,605,658,606,604,639,615,620,683,670,615,678,640,660
75.8208,636,634,676,640,615,605,635,671,617,631,662,616,582
76.0628,626,577,570,667,630,605,647,652,648,631,646,636,642
76.3048,617,624,633,670,640,582,626,574,597,631,645,638,599
76.5469,616,648,632,600,623,662,597,590,652,600,628,620,649
76.7889,631,598,639,614,611,598,657,607,655,658,635,626,674
77.0309,615,614,627,632,593,585,633,649,628,606,631,638,631
77.2729,600,627,632,652,629,618,645,596,630,589,631,616,634
77.5149,637,585,596,615,623,677,645,619,634,677,664,606,636
77.757,601,604,643,636,635,623,592,653,600,629,603,633,634
77.999,657,604,597,612,623,581,585,606,623,594,655,618,595